Voltage (V)
2.352
2.343
2.355
2.368
2.341
2.341
2.369
2.357
2.338
2.353
2.338
2.338
2.349
2.316
2.319
2.337
2.330
2.350
2.331
2.324
2.367
2.342
2.346
2.324
2.337
2.347
2.328
2.351
2.336
2.341
2.336
2.373
2.345
2.329
2.357
2.327
2.348
2.316
2.325
2.348
2.356
2.348
2.343
2.340
2.323
2.334
2.338
2.361
2.350
2.319
2.350
2.339
2.335
2.354
2.360
2.359
2.332
2.340
2.350
2.360
2.338
2.342
2.328
2.327
2.357
2.365
2.344
2.360
2.350
2.335
2.350
2.368
2.344
2.368
2.306
2.357
2.346
2.341
2.346
2.315
2.342
2.350
2.367
2.337
2.333
2.337
2.359
2.350
2.337
2.353
2.346
2.360
2.334
2.340
2.339
2.323
2.349
2.349
2.345
2.341
2.324
2.339
2.340
2.333
2.343
2.351
2.373
2.348
2.349
2.344
2.316
2.345
2.346
2.382
2.342
2.350
2.344
2.327
2.362
2.356
2.357
2.331
2.366
2.324
2.354
2.378
2.330
2.337
2.346
2.337
2.322
2.346
2.329
2.352
2.331
2.368
2.333
2.340
2.357
2.327
2.348
2.365
2.321
2.348
2.349
2.357
2.326
2.325
2.353
2.349
2.349
2.350
2.335
2.348
2.349
2.334
2.373
2.352
2.327
2.355
2.330
2.357
2.362
2.333
2.359
2.351
2.357
2.373
2.341
2.334
2.332
2.333
2.344
2.350
2.349
2.357
2.345
2.367
2.341
2.386
2.354
2.332
2.329
2.352
2.342
2.356
2.352
2.344
2.332
2.322
2.338
2.358
2.348
2.326
2.348
2.351
2.332
2.347
2.346
2.328
